# Step     T (K)     E_KS (eV)    E_tot (eV)   Vol (A^3)    P (kBar)
     1   8047.89    -898.21775    -895.09693    1000.001       4.967
     2   8215.65    -898.30291    -895.11705    1000.001       4.942
     3   8501.57    -898.42911    -895.13237    1000.001       4.151
     4   8313.57    -898.34214    -895.11830    1000.001       3.572
     5   7991.81    -898.20750    -895.10844    1000.001       3.188
     6   7923.67    -898.17933    -895.10669    1000.001       3.054
     7   8183.82    -898.28582    -895.11230    1000.001       3.300
     8   8524.71    -898.43170    -895.12599    1000.001       4.024
     9   8495.26    -898.42414    -895.12985    1000.001       5.095
    10   8195.25    -898.27634    -895.09839    1000.001       5.710
    11   8403.87    -898.37658    -895.11772    1000.001       4.907
    12   8715.87    -898.51411    -895.13427    1000.001       3.559
    13   8512.44    -898.42253    -895.12158    1000.001       2.562
    14   8084.11    -898.24795    -895.11309    1000.001       1.991
    15   7769.78    -898.12627    -895.11331    1000.001       1.957
    16   7586.36    -898.06367    -895.12183    1000.001       2.598
    17   7219.91    -897.93766    -895.13792    1000.001       4.010
    18   6196.54    -897.54340    -895.14050    1000.001       6.068
    19   4727.44    -896.93753    -895.10433    1000.001       7.849
    20   3877.68    -896.61561    -895.11192    1000.001       8.027
    21   3739.14    -896.57919    -895.12923    1000.001       6.856
    22   3845.61    -896.63700    -895.14575    1000.001       5.137
    23   4069.59    -896.75452    -895.17641    1000.001       3.367
    24   4328.82    -896.86347    -895.18484    1000.001       2.090
    25   4565.75    -896.95592    -895.18541    1000.001       1.103
    26   4778.73    -897.03967    -895.18658    1000.001       0.310
    27   4955.42    -897.10931    -895.18770    1000.001      -0.309
    28   5076.35    -897.15698    -895.18847    1000.001      -0.758
    29   5134.66    -897.17953    -895.18841    1000.001      -1.031
    30   5157.58    -897.18670    -895.18670    1000.001      -1.105
    31   5236.24    -897.21248    -895.18197    1000.001      -0.942
    32   5539.47    -897.32621    -895.17811    1000.001      -0.405
    33   6018.77    -897.54048    -895.20652    1000.001       0.902
    34   5815.75    -897.50513    -895.24989    1000.001       3.464
    35   4171.87    -896.80457    -895.18680    1000.001       6.726
    36   3558.26    -896.49707    -895.11725    1000.001       6.849
    37   5504.07    -897.31868    -895.18431    1000.001       3.413
    38   7658.09    -898.21241    -895.24275    1000.001       1.488
    39   8979.82    -898.74748    -895.26529    1000.001       2.030
    40   8423.13    -898.56682    -895.30050    1000.001       4.822
    41   6780.41    -897.73065    -895.10135    1000.001       7.509
    42   8546.94    -898.56080    -895.24647    1000.001       4.400
    43  11372.38    -899.69656    -895.28657    1000.001       1.033
    44  12151.60    -899.99427    -895.28212    1000.001       0.636
    45  10785.23    -899.45053    -895.26823    1000.001       2.120
    46   8767.20    -898.53652    -895.13678    1000.001       2.716
    47   8426.28    -898.51690    -895.24936    1000.001      -0.621
    48   8098.93    -898.38554    -895.24494    1000.001      -3.706
    49   7072.70    -897.95161    -895.20896    1000.001      -5.150
    50   6304.69    -897.64724    -895.20241    1000.001      -5.532
    51   5920.37    -897.51956    -895.22376    1000.001      -4.459
    52   4776.63    -897.12467    -895.27239    1000.001      -1.394
    53   2293.41    -896.01266    -895.12332    1000.001       2.474
    54   2699.73    -896.21374    -895.16684    1000.001       0.989
    55   5172.91    -897.25666    -895.25071    1000.001      -2.928
    56   5969.68    -897.50465    -895.18973    1000.001      -4.148
    57   5872.36    -897.46773    -895.19054    1000.001      -3.686
    58   4710.57    -897.09137    -895.26470    1000.001      -1.041
    59   1566.23    -895.73544    -895.12809    1000.001       3.382
    60   1700.74    -895.79098    -895.13146    1000.001       2.012
    61   5039.18    -897.22371    -895.26962    1000.001      -2.899
    62   6254.16    -897.62540    -895.20016    1000.001      -4.119
    63   6089.02    -897.57255    -895.21135    1000.001      -3.427
    64   4406.29    -896.97137    -895.26270    1000.001      -0.638
    65   1606.64    -895.69590    -895.07288    1000.001       2.438
    66   2365.49    -896.13422    -895.21693    1000.001      -0.750
    67   4359.49    -896.94812    -895.25759    1000.001      -4.983
    68   4642.40    -897.00009    -895.19986    1000.001      -6.762
    69   4694.10    -897.00510    -895.18482    1000.001      -7.678
    70   5411.85    -897.30014    -895.20153    1000.001      -7.598
    71   6490.09    -897.76618    -895.24945    1000.001      -5.930
    72   6833.61    -897.90868    -895.25874    1000.001      -2.446
    73   7273.34    -897.95319    -895.13273    1000.001       0.125
    74   9634.38    -899.02741    -895.29138    1000.001      -1.175
    75  10816.11    -899.53428    -895.34001    1000.001      -1.110
    76   8431.49    -898.57723    -895.30766    1000.001       1.899
    77   5577.75    -897.25019    -895.08725    1000.001       3.249
    78   6647.64    -897.87647    -895.29864    1000.001      -1.426
    79   7489.86    -898.16931    -895.26490    1000.001      -4.600
    80   6970.84    -897.92048    -895.21732    1000.001      -5.692
    81   6537.29    -897.74450    -895.20947    1000.001      -5.776
    82   6545.07    -897.76526    -895.22721    1000.001      -4.645
    83   6385.75    -897.74034    -895.26407    1000.001      -1.807
    84   5417.26    -897.32729    -895.22658    1000.001       2.240
    85   5694.91    -897.35479    -895.14642    1000.001       4.334
    86   8655.84    -898.64151    -895.28495    1000.001       3.530
    87  10602.89    -899.44709    -895.33550    1000.001       4.885
    88   9323.96    -898.86809    -895.25245    1000.001       8.717
    89   9030.16    -898.63298    -895.13126    1000.001       8.919
    90  11886.47    -899.92420    -895.31486    1000.001       4.462
    91  13084.05    -900.33601    -895.26228    1000.001       2.686
    92  12646.16    -900.14392    -895.23999    1000.001       2.225
    93  11504.38    -899.69514    -895.23397    1000.001       2.148
    94   9942.61    -899.08107    -895.22552    1000.001       2.233
    95   8226.63    -898.40428    -895.21416    1000.001       2.258
    96   6711.39    -897.80669    -895.20414    1000.001       2.162
    97   5715.92    -897.41572    -895.19920    1000.001       2.010
    98   5386.27    -897.29186    -895.20317    1000.001       1.972
    99   5558.53    -897.36296    -895.20747    1000.001       2.378
   100   5538.69    -897.37733    -895.22954    1000.001       3.593
   101   5146.88    -897.17456    -895.17870    1000.001       4.676
   102   6328.18    -897.69103    -895.23709    1000.001       4.888
   103   7139.41    -898.12963    -895.36111    1000.001       5.502
   104   5893.37    -897.35414    -895.06880    1000.001       7.152
   105   7618.04    -898.25168    -895.29755    1000.001       2.488
   106   9177.03    -898.84210    -895.28343    1000.001      -1.277
   107   8703.55    -898.60721    -895.23215    1000.001      -3.158
   108   7680.57    -898.19066    -895.21229    1000.001      -4.796
   109   6869.15    -897.86788    -895.20416    1000.001      -5.957
   110   6541.15    -897.73966    -895.20313    1000.001      -6.460
   111   6671.65    -897.80217    -895.21504    1000.001      -6.075
   112   6727.41    -897.86146    -895.25270    1000.001      -4.415
   113   5598.95    -897.43710    -895.26594    1000.001      -1.260
   114   4077.36    -896.71570    -895.13459    1000.001       0.979
   115   4856.44    -897.13482    -895.25160    1000.001      -1.450
   116   5761.05    -897.49587    -895.26185    1000.001      -4.242
   117   5376.93    -897.30218    -895.21711    1000.001      -5.595
   118   4923.63    -897.10284    -895.19356    1000.001      -6.380
   119   5342.36    -897.25633    -895.18467    1000.001      -6.580
   120   7003.28    -897.90572    -895.18999    1000.001      -5.927
   121   9688.76    -898.98382    -895.22671    1000.001      -3.798
   122  11777.62    -899.92999    -895.36287    1000.001       1.155
   123   8942.97    -898.94707    -895.47917    1000.001      10.799
   124   4605.20    -896.73192    -894.94612    1000.001      18.330
   125   6347.04    -897.73398    -895.27272    1000.001      14.394
   126   8013.73    -898.25905    -895.15148    1000.001      10.287
   127   9655.98    -898.98860    -895.24420    1000.001       3.905
   128   8599.10    -898.50120    -895.16664    1000.001       0.006
   129   6149.82    -897.50426    -895.11948    1000.001      -2.622
   130   3970.30    -896.64666    -895.10705    1000.001      -4.622
   131   2602.11    -896.11673    -895.10768    1000.001      -5.993
   132   2067.11    -895.91095    -895.10936    1000.001      -6.796
   133   2301.07    -896.00230    -895.10999    1000.001      -7.115
   134   3274.39    -896.38019    -895.11045    1000.001      -6.964
   135   4958.02    -897.03687    -895.11425    1000.001      -6.230
   136   7177.88    -897.91318    -895.12974    1000.001      -4.623
   137   9353.85    -898.78749    -895.16026    1000.001      -1.651
   138  10776.34    -899.32327    -895.14442    1000.001       2.806
   139  11853.75    -899.79207    -895.19542    1000.001       7.092
   140   9645.30    -899.17923    -895.43897    1000.001      12.081
   141   7733.20    -897.68696    -894.68818    1000.001      12.971
   142  12905.16    -900.21686    -895.21250    1000.001       1.559
   143  11902.26    -899.56875    -894.95329    1000.001      -1.066
   144   8890.01    -898.34325    -894.89588    1000.001      -2.769
   145   6693.18    -897.48767    -894.89219    1000.001      -4.198
   146   5620.98    -897.06699    -894.88729    1000.001      -4.836
   147   5440.24    -896.99834    -894.88873    1000.001      -4.765
   148   5793.41    -897.14444    -894.89787    1000.001      -3.983
   149   6224.21    -897.33196    -894.91834    1000.001      -2.353
   150   6119.44    -897.30711    -894.93411    1000.001       0.114
   151   5374.71    -896.98755    -894.90335    1000.001       2.486
   152   4959.47    -896.82361    -894.90043    1000.001       2.928
   153   5088.54    -896.90261    -894.92938    1000.001       1.674
   154   5008.47    -896.86993    -894.92775    1000.001       0.315
   155   4590.81    -896.69958    -894.91936    1000.001      -0.755
   156   4113.65    -896.50833    -894.91314    1000.001      -1.536
   157   3831.17    -896.39504    -894.90939    1000.001      -2.020
   158   3904.97    -896.42191    -894.90764    1000.001      -2.211
   159   4419.35    -896.62109    -894.90735    1000.001      -2.091
   160   5395.69    -897.00084    -894.90850    1000.001      -1.574
   161   6799.61    -897.54750    -894.91075    1000.001      -0.542
   162   8562.77    -898.23316    -894.91269    1000.001       1.190
   163  10558.66    -899.02414    -894.92971    1000.001       3.901
   164  11688.59    -899.59391    -895.06131    1000.001       8.434
   165   8566.15    -898.36865    -895.04687    1000.001      16.109
   166   8464.83    -898.00703    -894.72453    1000.001      16.064
   167  14474.56    -900.71190    -895.09895    1000.001       5.787
   168  14636.40    -900.59337    -894.91767    1000.001       1.941
   169  11799.37    -899.41978    -894.84422    1000.001      -0.950
   170   8877.48    -898.26982    -894.82732    1000.001      -3.525
   171   6632.95    -897.39920    -894.82708    1000.001      -5.434
   172   5096.97    -896.80566    -894.82916    1000.001      -6.730
   173   4174.46    -896.44922    -894.83045    1000.001      -7.540
   174   3803.75    -896.30550    -894.83048    1000.001      -7.968
   175   3975.45    -896.37106    -894.82946    1000.001      -8.055
   176   4727.01    -896.66079    -894.82775    1000.001      -7.779
   177   6118.17    -897.19986    -894.82735    1000.001      -7.029
   178   8150.13    -897.99342    -894.83296    1000.001      -5.569
   179  10620.02    -898.96392    -894.84569    1000.001      -3.044
   180  13177.43    -899.96190    -894.85195    1000.001       0.578
   181  14935.32    -900.76995    -894.97833    1000.001       4.839
   182  12308.09    -899.76974    -894.99690    1000.001      10.834
   183  11057.78    -899.00544    -894.71746    1000.001      10.162
   184  14047.17    -900.44083    -894.99362    1000.001       1.607
   185  12202.19    -899.54203    -894.81026    1000.001      -0.868
   186   8929.97    -898.22103    -894.75816    1000.001      -2.507
   187   6529.49    -897.28272    -894.75071    1000.001      -3.674
   188   5339.80    -896.82595    -894.75528    1000.001      -4.048
   189   5140.64    -896.75921    -894.76577    1000.001      -3.617
   190   5502.84    -896.91454    -894.78065    1000.001      -2.358
   191   5868.78    -897.07124    -894.79544    1000.001      -0.273
   192   5785.27    -897.03475    -894.79133    1000.001       2.285
   193   5460.55    -896.88044    -894.76295    1000.001       4.258
   194   5660.16    -896.95723    -894.76233    1000.001       4.500
   195   6395.58    -897.27256    -894.79248    1000.001       3.298
   196   6872.81    -897.46297    -894.79784    1000.001       1.904
   197   6858.06    -897.44151    -894.78209    1000.001       0.883
   198   6842.82    -897.41987    -894.76636    1000.001       0.208
   199   7421.02    -897.63520    -894.75748    1000.001      -0.141
   200   8931.32    -898.22938    -894.76599    1000.001      -0.004
   201  10976.64    -899.08304    -894.82652    1000.001       1.281
   202  11558.21    -899.39208    -894.91003    1000.001       5.083
   203  10900.99    -898.83582    -894.60863    1000.001       9.278
   204  13785.03    -900.27401    -894.92845    1000.001       6.128
   205  15316.24    -900.82786    -894.88853    1000.001       3.835
   206  13617.82    -900.08131    -894.80059    1000.001       2.760
   207  11153.89    -899.10435    -894.77909    1000.001       0.605
   208   8944.79    -898.24595    -894.77734    1000.001      -1.771
   209   7171.71    -897.55675    -894.77570    1000.001      -3.661
   210   5897.69    -897.06293    -894.77593    1000.001      -5.050
   211   5135.64    -896.76791    -894.77642    1000.001      -6.065
   212   4886.29    -896.67040    -894.77560    1000.001      -6.760
   213   5195.59    -896.78809    -894.77334    1000.001      -7.160
   214   6165.14    -897.16214    -894.77142    1000.001      -7.231
   215   7898.51    -897.83548    -894.77259    1000.001      -6.832
   216  10392.70    -898.81190    -894.78182    1000.001      -5.639
   217  13232.97    -899.95782    -894.82634    1000.001      -2.956
   218  14458.84    -900.58319    -894.97634    1000.001       2.603
   219  10869.27    -899.02229    -894.80740    1000.001      11.510
   220  10521.43    -898.89821    -894.81821    1000.001      11.541
   221  13459.10    -900.16695    -894.94777    1000.001       6.019
   222  12201.88    -899.54078    -894.80914    1000.001       4.661
   223   9825.15    -898.58621    -894.77622    1000.001       2.986
   224   7890.49    -897.83520    -894.77542    1000.001       1.117
   225   6495.99    -897.29978    -894.78076    1000.001      -0.630
   226   5484.73    -896.90768    -894.78081    1000.001      -2.109
   227   4873.71    -896.66632    -894.77639    1000.001      -3.212
   228   4856.49    -896.65425    -894.77100    1000.001      -3.986
   229   5683.73    -896.96934    -894.76530    1000.001      -4.472
   230   7597.04    -897.70987    -894.76389    1000.001      -4.582
   231  10631.07    -898.90582    -894.78330    1000.001      -3.862
   232  13930.60    -900.27205    -894.87004    1000.001      -1.242
   233  14131.24    -900.53729    -895.05747    1000.001       5.052
   234  10695.60    -898.58591    -894.43837    1000.001      12.144
   235  12765.41    -900.00362    -895.05345    1000.001       5.686
   236  13006.62    -899.94015    -894.89645    1000.001       1.535
   237  10164.14    -898.75431    -894.81286    1000.001      -0.433
   238   7340.69    -897.64614    -894.79956    1000.001      -2.440
   239   5274.83    -896.84577    -894.80029    1000.001      -3.846
   240   3987.87    -896.34719    -894.80077    1000.001      -4.563
   241   3382.60    -896.10501    -894.79330    1000.001      -4.588
   242   3308.32    -896.07238    -894.78948    1000.001      -4.027
   243   3556.01    -896.16882    -894.78987    1000.001      -2.958
   244   3940.81    -896.31615    -894.78798    1000.001      -1.581
   245   4449.02    -896.51050    -894.78525    1000.001      -0.401
   246   5124.29    -896.78771    -894.80061    1000.001       0.052
   247   5692.09    -897.03295    -894.82568    1000.001      -0.114
   248   5758.86    -897.06819    -894.83502    1000.001      -0.400
   249   5284.75    -896.87905    -894.82973    1000.001      -0.567
   250   4529.92    -896.57857    -894.82196    1000.001      -0.590
   251   3807.21    -896.29148    -894.81512    1000.001      -0.477
   252   3396.52    -896.12549    -894.80839    1000.001      -0.220
   253   3552.84    -896.18095    -894.80322    1000.001       0.216
   254   4436.27    -896.52611    -894.80581    1000.001       0.945
   255   5961.52    -897.12810    -894.81635    1000.001       2.142
   256   7761.02    -897.83908    -894.82951    1000.001       4.044
   257   9483.04    -898.50102    -894.82369    1000.001       6.610
   258  11398.97    -899.24002    -894.81973    1000.001       9.071
   259  13273.63    -900.05769    -894.91044    1000.001      10.859
   260  14067.43    -900.23275    -894.77769    1000.001      11.478
   261  14821.63    -900.67481    -894.92728    1000.001       7.355
   262  13912.98    -900.28197    -894.88680    1000.001       2.899
   263  11254.80    -899.18485    -894.82046    1000.001      -0.077
   264   8825.12    -898.22853    -894.80632    1000.001      -2.438
   265   7286.34    -897.63464    -894.80914    1000.001      -4.021
   266   6567.15    -897.36132    -894.81471    1000.001      -4.826
   267   6431.55    -897.31483    -894.82080    1000.001      -4.915
   268   6599.93    -897.38663    -894.82731    1000.001      -4.241
   269   6811.53    -897.46632    -894.82494    1000.001      -2.851
   270   7113.00    -897.56714    -894.80886    1000.001      -1.205
   271   7726.91    -897.82214    -894.82580    1000.001       0.161
   272   7959.62    -897.94209    -894.85551    1000.001       1.954
   273   7066.37    -897.53557    -894.79537    1000.001       4.096
   274   6656.72    -897.34405    -894.76271    1000.001       3.888
   275   7413.19    -897.70124    -894.82656    1000.001       1.237
   276   7746.70    -897.81722    -894.81321    1000.001      -1.023
   277   7609.94    -897.74549    -894.79451    1000.001      -2.608
   278   7758.25    -897.80095    -894.79246    1000.001      -3.703
   279   8597.14    -898.14016    -894.80636    1000.001      -4.019
   280  10007.59    -898.71155    -894.83081    1000.001      -3.280
   281  11341.80    -899.25207    -894.85395    1000.001      -1.444
   282  11983.67    -899.48598    -894.83895    1000.001       0.877
   283  12156.82    -899.54283    -894.82866    1000.001       1.949
   284  11975.59    -899.49598    -894.85209    1000.001       1.279
   285  10988.06    -899.10159    -894.84064    1000.001       0.051
   286   9391.38    -898.44604    -894.80425    1000.001      -1.067
   287   7829.47    -897.81303    -894.77692    1000.001      -1.990
   288   6762.21    -897.39121    -894.76896    1000.001      -2.629
   289   6306.25    -897.21814    -894.77271    1000.001      -2.854
   290   6329.77    -897.23048    -894.77592    1000.001      -2.599
   291   6618.68    -897.34103    -894.77444    1000.001      -2.015
   292   7024.26    -897.49502    -894.77116    1000.001      -1.259
   293   7384.20    -897.64623    -894.78278    1000.001      -0.272
   294   7097.74    -897.56336    -894.81100    1000.001       1.485
   295   5824.04    -896.99903    -894.74059    1000.001       3.706
   296   5682.36    -896.93306    -894.72955    1000.001       2.988
   297   6901.76    -897.49144    -894.81507    1000.001      -0.021
   298   7198.40    -897.58138    -894.78999    1000.001      -1.726
   299   6646.98    -897.34510    -894.76753    1000.001      -2.605
   300   5937.83    -897.06317    -894.76060    1000.001      -3.173
